File: wf_data/pub_723/DS0747/Figure_5_XRD_air_milled_LaMnO3.dat
SampleIdent ____ DataFileName ______
DiffrType ______   GeneratorVoltage __   TubeCurrent __
Anode __    Alpha1  1.54060    Alpha2  1.54439    Ratio  0.50000
MonochromatorUsed __   DivergenceSlit _      ReceivingSlit ___
  10.000   0.045 130.057    MeasureDateTime 08/11/2016   09:11
    1199    1215    1205    1190    1196    1114    1131    1079    1195    1161
    1019     957     958    1022     965     949     998    1000     926     921
     838     818     838     810     831     807     807     804     859     820
     721     723     724     750     716     759     701     711     684     678
     680     621     627     637     621     685     668     653     632     607
     579     558     560     546     521     550     532     542     549     562
     522     515     483     498     530     481     559     542     500     488
     457     464     441     461     452     469     443     443     456     439
     451     444     427     413     416     444     439     446     406     434
     461     509     519     486     549     548     559     584     646     617
     492     490     480     441     442     444     450     452     421     448
     420     425     431     414     399     391     394     422     407     404
     420     416     442     415     408     475     430     467     448     467
     500     462     495     464     491     508     487     504     508     514
     537     521     504     531     551     556     531     512     563     503
     593     559     586     560     616     570     572     568     599     577
     788     811     822     904     960     966     992    1054    1144    1202
    2127    1999    1884    1694    1555    1467    1321    1218    1147    1063
     325     312     295     316     321     314     297     307     279     284
     207     220     212     205     203     203     212     203     222     176
     197     182     194     181     184     165     194     175     203     175
     185     213     199     218     227     237     235     212     242     241
     347     349     403     430     416     494     492     493     489     488
     350     335     331     336     298     269     315     316     288     279
     244     217     206     224     212     222     222     200     221     195
     207     206     197     194     238     192     199     212     199     209
     259     206     260     232     223     249     250     263     254     303
     545     552     630     625     677     633     695     725     701     769
     364     382     380     323     307     319     313     290     283     233
     255     238     238     208     208     175     212     217     206     203
     209     205     186     194     181     207     224     188     171     185
     204     216     227     233     250     260     254     268     256     222
     262     250     283     266     247     270     242     226     227     247
     201     179     184     170     191     180     187     177     228     199
     215     233     222     228     193     204     216     197     239     212
     297     351     325     318     360     363     429     425     453     440
     644     678     592     587     594     518     547     540     490     447
     192     202     205     214     205     205     190     190     184     182
     136     151     123     131     151     141     127     141     157     140
     112     136     123     119     135     138     138     130     125     108
     118     101     122     118     122     107     114     112     126     134
     113     114     103     136     129     123     107     105     116     114
     132     141     128     133     134     143     176     176     160     152
     259     273     261     252     266     326     282     285     296     285
     220     191     180     184     186     182     190     176     157     178
     102     122     112     124     119     101     112     103     126     101
     146     119     134     115     116     116     128     134     114     126
     138     129     126     150     138     135     150     122     129     127
     113     115     121     112     133     109     112     116     120     102
     129     126     146     135     147     137     141     130     127     160
     209     185     213     254     226     276     251     255     257     223
     201     190     186     204     186     157     151     183     162     169
     127     105     130     108     116     131     126     122     120     108
     118     121     109     138     121     127     112     127     129     123
     129     135     155     132     121     114     144     142     122     116
     111     116     122      84     104     112     117      98     111     101
      98     101     118     118     120     107     124     114     101     109
     137     157     137     148     137     144     132     149     114     134
     119     117     121     102     120     113     114     120     103     102
      98      93     121     106      82     119     108     109     114     102
     110      89     119     108      96     107     127     120     112     135
      96     120     117     125     110     111     118      95     106      97
     111     117     106     111     126     120     123     124     134     127
     162     163     152     188     184     180     179     184     178     204
     209     224     217     207     210     205     213     196     179     213
     143     136     142     144     144     126     147     136     155     128
      99     121     106      99     101     103     103     103      96      93
      89      88     104      72      79      79      84      89      91      82
      75      65      92      82      78      85      83      86      88      79
      89      85      86      90      89      81     101      90      82      82
      87      87      90      97     103      99      94     105     104      96
     118     101     102      92     113     106      93     103      85      99
      98      90     121     102     107      88      94      91      93      96
      79      94      91     100     110      93     116      78      86      90
      94     120      91     119      99      95      92     106     104     111
      97     119     115      99     101      99     110     120     112      99
     138     118     122      94     131      99     134     134     109     136
     127     159     147     149     152     155     143     147     130     150
     157     162     162     163     158     174     154     170     180     172
     144     142     147     146     136     139     137     136     119     128
     134     134     131     127     127     111     128     113     113     108
      99      95     135     104     104     121     110     117     122      81
     116     104     108     124     118     110      92     117     122     127
     119     126      96     112     124     118     121     106     106      99
     118     119     134     121     127     138     134     117     135     113
     147     150     135     158     168     164     141     141     126     147
     155     120     157     131     165     146     125     128     159     130
     129     138     146     142     131     153     130     145     126     121
     129     131     107     140     120     135     138     116     112      95
     131     124     102     109     121     123     113     116     126     108
     134     103     110     106     118     117