File: wf_data/pub_723/DS0747/Figure_5_XRD_Solgel_LaMnO3.dat
SampleIdent ____ DataFileName ______
DiffrType ______   GeneratorVoltage __   TubeCurrent __
Anode __    Alpha1  1.54060    Alpha2  1.54439    Ratio  0.50000
MonochromatorUsed __   DivergenceSlit _      ReceivingSlit ___
  10.000   0.023 130.007    MeasureDateTime 19/04/2017   09:11
     137     127     184     154     151     144     149     137     128     157
     148     149     121     148     147     133     155     119     129     149
     129     143     146     126     129     128     126     139     136     141
      95     142     144     131     122     129     118     112     128     116
     108     131     117      96     122     137     124     105     121     134
     106     112     104     135     113     105     127     127     122     115
     115     103     120     100     103     128      92     117     117      99
     117     100     105      79      97      99     103      88     118     126
     104     112      95     122      91      94     113     100     105      94
     112     116      99     120     109     117     129     119     109      96
     116     121     130     136     128     131     135     117     129     125
     197     200     208     193     243     265     251     304     298     317
     166     150     157     144     146     131     145     152     144     151
     145     121     123     122     123     138     132     126     127     126
     102     120      96     114     108     121     117     124     114     108
     127     123     112     103     118     118     103     130     122     112
     117     122     117     121     119     105     143      97     158     108
     124     121     157     140     126     138     118     138     164     123
     132     131     117     114     130     125     135     125     131     157
     258     232     247     248     273     271     284     285     307     311
    9783    9431    9426   10010   10651   11743   12100   12085   11207    9973
     197     192     159     178     189     159     181     177     167     187
     108     114     126     105     109      94     102      88      91     105
      77      82      78      89      57      81      87     105      76      78
      77      78      74      67      56      56      81      83      63      66
     133     118     138     139     151     185     215     231     227     217
     106     125     117     119      99     121     130     140     124     141
     893     942    1030    1049     970     932     875     795     677     578
     106      96      86      98      94      97      95     110     104      97
      83      97      78     108      92      91      96     114      80     108
     121     100      99     102     100      94      97      88     104     118
     113     110     112     129     126     121     107     120     144     132
     185     205     212     192     233     217     249     261     249     262
     314     283     258     247     236     209     234     193     189     170
     113     125     115     105     119     114      97     108     108     111
     100     102      89      91     116      89     110      92      91      93
      92      71      88     104      67      98      96      79     102      84
     107     123      96     104     105      99     102     106     119     115
     510     482     438     435     393     378     348     296     249     233
      76      77      73      91      73      84      83      69      75      79
      64      77      72      85      79      61      83      83      55      83
      89     100     103      85     111     103     108     104     111      88
     179     158     178     178     245     243     249     273     298     283
    1103    1168    1310    1370    1302    1254    1112    1097     995     957
      88      74     116      86      80      94      93      87      96     103
      70      71      73      78      77      81      65      86      83      71
      65      79      74      73      69      72      87      75      84      70
      59      63      57      49      57      54      65      64      65      84
      70      58      55      52      81      63      69      54      67      49
      71      60      58      61      64      69      76      58      53      66
      71      58      78      59      71      63      85      66      72      67
     114     130     120     146     140     185     167     218     202     229
     832     766     735     653     658     600     583     536     487     397
      70      57      72      69      68      81      51      77      53      68
      69      63      47      60      60      63      69      57      61      60
      62      66      65      68      72      85      63      62      87      75
     174     160     146     179     166     138     136     139     114     115
      60      67      62      66      48      36      66      50      65      49
      65      47      59      78      56      49      42      55      55      51
      72      72      72      61      75      56      58      79      70      65
     666     604     614     637     653     670     684     703     738     703
      81      54      67      69      62      54      63      59      75      53
      54      59      37      50      49      42      62      53      51      42
      49      72      59      60      51      60      48      48      54      55
     203     220     214     219     222     208     195     194     183     185
      70      75      68      66      77      58      76      54      68      60
      50      51      56      62      51      54      51      46      49      58
      52      55      43      44      43      37      55      57      64      51
     242     235     233     230     237     213     199     218     193     169
     119     107      91     112     105     108      85      95      90      87
      38      40      39      43      42      50      54      38      47      49
      53      48      48      48      54      44      52      53      55      53
      69      93      73      82      78      73      63      68      78      60
      62      38      41      56      44      52      50      53      39      47
      46      40      48      40      48      36      51      46      53      32
      64      75      65      73      66      59      79      77      65      84
     512     462     497     483     477     444     489     478     484     481
     217     206     194     172     183     188     189     207     174     177
      34      42      52      45      55      46      42      46      39      36
      46      44      56      40      50      40      42      44      42      38
      38      43      34      38      45      39      41      31      39      33
      44      38      39      36      36      40      36      41      48      39
      36      30      33      42      44      47      32      35      44      31
      35      32      41      30      39      33      32      44      40      37
      58      49      96      88      84      84     110     104      96     102
      50      46      52      43      37      40      41      41      40      44
      34      55      31      42      33      35      28      33      37      35
      33      34      36      29      36      38      32      36      44      28
      78      67      67      85      82      72      73      79      98      94
      48      63      45      42      57      35      57      48      51      41
      42      39      33      48      37      39      36      40      28      43
      38      47      40      41      34      34      37      52      34      42
     106      99     105     103     119     118     136     140     167     147
     172     146     170     171     169     159     156     166     165     160
      88      89      80      62      67      49      67      66      57      61
      43      43      34      35      31      36      29      30      30      39
      39      30      43      35      34      35      25      37      34      48
      55      60      49      33      45      56      50      54      35      45
      46      42      31      51      43      28      40      47      33      42
      55      52      30      37      30      22      24      39      28      45
      32      26      33      31      31      34      35      43      36      30
      55      61      53      61      64      61      60      68      74      78
      93      93      76      96      80      80      88      78      93      84
     106      95     109     128      89      95     107      79     103      86
      23      35      20      32      36      42      31      30      33      38
      28      28      21      25      22      22      23      26      18      33
      31      42      39      31      40      26      40      41      34      24
      41